! Solar data file for CrIS hiRes 080808 SARTA fast model
!
! Data for 645-1500 cm-1 comes from M.P. Thekaekara, 1973 Solar
! Energy v.14 p.109-127 (supplied to us by Chris Barnet).  The ~80
! cm-1 point spacing data has been interpolated to the IASI
! channel freqs and converted to W/(m2.sr.cm-1).
!
! Data for 1500-2760 cm-1 comes from ATMOS Solar Spectra, and was
! supplied to us by ATMOS Principal Investigator Michael Gunson.
! In particular we used the file "atmos_corrected_solar.mat".
! This data was then directly convolved with IASI SRFs (Gaussian
! 2cm apodization) for each channel to approximate the effective
! solar irradiance.
!
!chan frequency  solar
!----  -------  -------
     1    649.620    15.502
     2    649.858    15.511
     3    650.097    15.521
     4    650.335    15.531
     5    650.574    15.541
     6    650.814    15.551
     7    651.053    15.561
     8    651.293    15.571
     9    651.532    15.580
    10    651.772    15.591
    11    652.012    15.601
    12    652.253    15.611
    13    652.493    15.621
    14    652.734    15.631
    15    652.975    15.641
    16    653.216    15.652
    17    653.457    15.661
    18    653.699    15.672
    19    653.940    15.682
    20    654.182    15.692
    21    654.424    15.703
    22    654.666    15.713
    23    654.909    15.723
    24    655.151    15.734
    25    655.394    15.744
    26    655.637    15.754
    27    655.880    15.765
    28    656.124    15.775
    29    656.367    15.786
    30    656.611    15.796
    31    656.855    15.807
    32    657.099    15.817
    33    657.343    15.828
    34    657.588    15.839
    35    657.833    15.850
    36    658.078    15.860
    37    658.323    15.871
    38    658.568    15.882
    39    658.813    15.893
    40    659.059    15.904
    41    659.305    15.914
    42    659.551    15.925
    43    659.797    15.936
    44    660.044    15.947
    45    660.291    15.958
    46    660.537    15.969
    47    660.784    15.980
    48    661.032    15.991
    49    661.279    16.002
    50    661.527    16.013
    51    661.775    16.024
    52    662.023    16.035
    53    662.271    16.047
    54    662.519    16.058
    55    662.768    16.069
    56    663.017    16.081
    57    663.266    16.092
    58    663.515    16.104
    59    663.765    16.115
    60    664.014    16.126
    61    664.264    16.138
    62    664.514    16.149
    63    664.764    16.161
    64    665.015    16.172
    65    665.265    16.184
    66    665.516    16.196
    67    665.767    16.207
    68    666.018    16.219
    69    666.270    16.230
    70    666.521    16.242
    71    666.773    16.254
    72    667.025    16.266
    73    667.277    16.277
    74    667.530    16.289
    75    667.782    16.302
    76    668.035    16.314
    77    668.288    16.326
    78    668.541    16.338
    79    668.795    16.349
    80    669.049    16.361
    81    669.302    16.373
    82    669.556    16.386
    83    669.811    16.398
    84    670.065    16.410
    85    670.320    16.423
    86    670.575    16.436
    87    670.830    16.448
    88    671.085    16.460
    89    671.340    16.472
    90    671.596    16.485
    91    671.852    16.497
    92    672.108    16.510
    93    672.364    16.522
    94    672.621    16.535
    95    672.878    16.547
    96    673.134    16.560
    97    673.392    16.573
    98    673.649    16.585
    99    673.906    16.598
   100    674.164    16.611
   101    674.422    16.624
   102    674.680    16.637
   103    674.939    16.649
   104    675.197    16.662
   105    675.456    16.675
   106    675.715    16.688
   107    675.974    16.701
   108    676.233    16.714
   109    676.493    16.728
   110    676.753    16.740
   111    677.013    16.754
   112    677.273    16.766
   113    677.533    16.780
   114    677.794    16.792
   115    678.055    16.806
   116    678.316    16.819
   117    678.577    16.833
   118    678.839    16.846
   119    679.100    16.859
   120    679.362    16.873
   121    679.625    16.886
   122    679.887    16.899
   123    680.149    16.913
   124    680.412    16.926
   125    680.675    16.940
   126    680.938    16.954
   127    681.202    16.967
   128    681.465    16.980
   129    681.729    16.994
   130    681.993    17.008
   131    682.251    17.021
   132    682.506    17.034
   133    682.761    17.048
   134    683.016    17.061
   135    683.270    17.074
   136    683.525    17.087
   137    683.780    17.101
   138    684.035    17.114
   139    684.290    17.127
   140    684.545    17.140
   141    684.800    17.154
   142    685.055    17.167
   143    685.310    17.180
   144    685.565    17.194
   145    685.820    17.208
   146    686.074    17.221
   147    686.329    17.234
   148    686.584    17.247
   149    686.839    17.261
   150    687.094    17.274
   151    687.349    17.288
   152    687.601    17.301
   153    687.871    17.315
   154    688.140    17.329
   155    688.410    17.344
   156    688.680    17.358
   157    688.950    17.372
   158    689.220    17.387
   159    689.491    17.402
   160    689.762    17.416
   161    690.033    17.431
   162    690.304    17.445
   163    690.575    17.459
   164    690.847    17.473
   165    691.119    17.488
   166    691.391    17.503
   167    691.664    17.518
   168    691.936    17.532
   169    692.209    17.547
   170    692.482    17.561
   171    692.755    17.575
   172    693.029    17.591
   173    693.302    17.605
   174    693.576    17.620
   175    693.850    17.635
   176    694.125    17.649
   177    694.399    17.664
   178    694.674    17.679
   179    694.949    17.693
   180    695.225    17.709
   181    695.500    17.723
   182    695.776    17.738
   183    696.052    17.753
   184    696.328    17.768
   185    696.604    17.783
   186    696.881    17.798
   187    697.158    17.813
   188    697.435    17.828
   189    697.712    17.843
   190    697.990    17.857
   191    698.267    17.873
   192    698.545    17.888
   193    698.823    17.903
   194    699.102    17.918
   195    699.381    17.933
   196    699.659    17.948
   197    699.939    17.964
   198    700.218    17.978
   199    700.497    17.994
   200    700.777    18.009
   201    701.057    18.024
   202    701.338    18.039
   203    701.618    18.055
   204    701.899    18.070
   205    702.180    18.085
   206    702.461    18.100
   207    702.742    18.116
   208    703.024    18.131
   209    703.306    18.146
   210    703.588    18.162
   211    703.870    18.177
   212    704.153    18.192
   213    704.436    18.207
   214    704.719    18.223
   215    705.002    18.238
   216    705.285    18.254
   217    705.569    18.269
   218    705.853    18.285
   219    706.137    18.300
   220    706.422    18.316
   221    706.706    18.331
   222    706.991    18.346
   223    707.276    18.361
   224    707.562    18.377
   225    707.847    18.392
   226    708.133    18.408
   227    708.419    18.423
   228    708.706    18.440
   229    708.992    18.455
   230    709.279    18.471
   231    709.566    18.486
   232    709.853    18.501
   233    710.141    18.517
   234    710.428    18.532
   235    710.716    18.548
   236    711.005    18.564
   237    711.293    18.579
   238    711.582    18.595
   239    711.871    18.611
   240    712.160    18.626
   241    712.449    18.642
   242    712.739    18.657
   243    713.029    18.673
   244    713.319    18.689
   245    713.609    18.704
   246    713.900    18.720
   247    714.191    18.736
   248    714.482    18.751
   249    714.773    18.766
   250    715.065    18.782
   251    715.356    18.798
   252    715.648    18.814
   253    715.941    18.830
   254    716.233    18.845
   255    716.526    18.860
   256    716.819    18.877
   257    717.112    18.892
   258    717.406    18.908
   259    717.700    18.923
   260    717.994    18.940
   261    718.288    18.955
   262    718.582    18.971
   263    718.877    18.987
   264    719.172    19.002
   265    719.467    19.018
   266    719.763    19.034
   267    720.058    19.049
   268    720.354    19.065
   269    720.651    19.081
   270    720.947    19.096
   271    721.244    19.113
   272    721.541    19.128
   273    721.838    19.144
   274    722.135    19.160
   275    722.433    19.176
   276    722.731    19.191
   277    723.029    19.208
   278    723.328    19.223
   279    723.626    19.239
   280    723.925    19.255
   281    724.224    19.271
   282    724.524    19.286
   283    724.823    19.302
   284    725.123    19.318
   285    725.424    19.334
   286    725.724    19.350
   287    726.025    19.365
   288    726.326    19.381
   289    726.627    19.398
   290    726.928    19.413
   291    727.230    19.429
   292    727.532    19.446
   293    727.834    19.461
   294    728.137    19.477
   295    728.439    19.493
   296    728.660    19.504
   297    728.963    19.521
   298    729.266    19.537
   299    729.569    19.553
   300    729.873    19.568
   301    730.177    19.584
   302    730.481    19.601
   303    730.785    19.617
   304    731.090    19.633
   305    731.395    19.649
   306    731.700    19.664
   307    732.005    19.681
   308    732.311    19.697
   309    732.617    19.713
   310    732.923    19.729
   311    733.229    19.745
   312    733.536    19.762
   313    733.843    19.778
   314    734.150    19.794
   315    734.458    19.810
   316    734.765    19.826
   317    735.073    19.842
   318    735.381    19.858
   319    735.690    19.875
   320    735.999    19.891
   321    736.308    19.907
   322    736.617    19.923
   323    736.926    19.940
   324    737.236    19.956
   325    737.546    19.972
   326    737.856    19.989
   327    738.167    20.005
   328    738.477    20.022
   329    738.788    20.038
   330    739.100    20.054
   331    739.411    20.070
   332    739.723    20.087
   333    740.035    20.103
   334    740.347    20.120
   335    740.660    20.136
   336    740.973    20.153
   337    741.286    20.169
   338    741.599    20.185
   339    741.913    20.202
   340    742.227    20.219
   341    742.541    20.235
   342    742.855    20.252
   343    743.170    20.269
   344    743.485    20.285
   345    743.800    20.302
   346    744.116    20.318
   347    744.431    20.335
   348    744.747    20.352
   349    745.064    20.368
   350    745.380    20.385
   351    745.697    20.401
   352    746.014    20.419
   353    746.331    20.435
   354    746.649    20.452
   355    746.967    20.469
   356    747.285    20.486
   357    747.603    20.502
   358    747.922    20.520
   359    748.241    20.537
   360    748.560    20.553
   361    748.879    20.570
   362    749.199    20.587
   363    749.519    20.604
   364    749.839    20.621
   365    750.160    20.638
   366    750.481    20.655
   367    750.802    20.672
   368    751.123    20.689
   369    751.445    20.706
   370    751.767    20.724
   371    752.089    20.741
   372    752.411    20.758
   373    752.734    20.775
   374    753.057    20.792
   375    753.380    20.809
   376    753.703    20.827
   377    754.027    20.844
   378    754.351    20.861
   379    754.676    20.879
   380    755.000    20.896
   381    755.325    20.913
   382    755.650    20.931
   383    755.976    20.949
   384    756.301    20.966
   385    756.627    20.983
   386    756.954    21.001
   387    757.280    21.019
   388    757.607    21.036
   389    757.934    21.054
   390    758.261    21.071
   391    758.589    21.089
   392    758.917    21.106
   393    759.245    21.124
   394    759.573    21.142
   395    759.902    21.160
   396    760.231    21.177
   397    760.561    21.195
   398    760.890    21.213
   399    761.220    21.230
   400    761.550    21.249
   401    761.881    21.267
   402    762.211    21.285
   403    762.542    21.302
   404    762.873    21.321
   405    763.205    21.339
   406    763.537    21.357
   407    763.869    21.375
   408    764.201    21.393
   409    764.534    21.411
   410    764.867    21.430
   411    765.200    21.447
   412    765.534    21.466
   413    765.867    21.485
   414    766.201    21.502
   415    766.536    21.521
   416    766.870    21.540
   417    767.205    21.558
   418    767.541    21.576
   419    767.876    21.595
   420    768.212    21.613
   421    768.548    21.632
   422    768.884    21.651
   423    769.221    21.669
   424    769.558    21.688
   425    769.895    21.706
   426    770.233    21.725
   427    770.570    21.744
   428    770.909    21.763
   429    771.247    21.782
   430    771.586    21.801
   431    771.925    21.820
   432    772.264    21.838
   433    772.603    21.857
   434    772.943    21.877
   435    773.283    21.895
   436    773.624    21.914
   437    773.964    21.934
   438    774.305    21.952
   439    774.647    21.972
   440    774.988    21.991
   441    775.330    22.010
   442    775.672    22.030
   443    776.015    22.049
   444    776.357    22.068
   445    776.700    22.087
   446    777.044    22.107
   447    777.387    22.127
   448    777.731    22.146
   449    778.076    22.165
   450    778.420    22.185
   451    778.765    22.205
   452    779.110    22.224
   453    779.455    22.244
   454    779.801    22.264
   455    780.147    22.283
   456    780.493    22.304
   457    780.840    22.323
   458    781.187    22.342
   459    781.534    22.363
   460    781.882    22.383
   461    782.221    22.402
   462    782.556    22.421
   463    782.892    22.441
   464    783.227    22.460
   465    783.563    22.480
   466    783.898    22.498
   467    784.234    22.518
   468    784.569    22.537
   469    784.905    22.557
   470    785.240    22.575
   471    785.576    22.595
   472    785.911    22.615
   473    786.247    22.634
   474    786.582    22.654
   475    786.918    22.673
   476    787.253    22.692
   477    787.589    22.712
   478    787.924    22.731
   479    788.260    22.751
   480    788.595    22.770
   481    788.931    22.790
   482    789.263    22.810
   483    789.616    22.830
   484    789.971    22.850
   485    790.325    22.872
   486    790.680    22.892
   487    791.035    22.913
   488    791.390    22.933
   489    791.745    22.955
   490    792.101    22.975
   491    792.457    22.996
   492    792.814    23.017
   493    793.171    23.038
   494    793.528    23.060
   495    793.885    23.080
   496    794.243    23.102
   497    794.601    23.122
   498    794.959    23.144
   499    795.318    23.164
   500    795.677    23.186
   501    796.036    23.207
   502    796.396    23.228
   503    796.756    23.249
   504    797.116    23.271
   505    797.477    23.293
   506    797.837    23.313
   507    798.199    23.335
   508    798.560    23.357
   509    798.922    23.378
   510    799.284    23.399
   511    799.646    23.421
   512    800.009    23.443
   513    800.372    23.464
   514    800.735    23.486
   515    801.099    23.508
   516    801.463    23.529
   517    801.827    23.551
   518    802.192    23.573
   519    802.557    23.594
   520    802.922    23.616
   521    803.288    23.638
   522    803.654    23.660
   523    804.020    23.682
   524    804.386    23.704
   525    804.753    23.726
   526    805.120    23.748
   527    805.488    23.770
   528    805.856    23.792
   529    806.224    23.814
   530    806.592    23.837
   531    806.961    23.859
   532    807.330    23.881
   533    807.699    23.903
   534    808.069    23.925
   535    808.439    23.947
   536    808.809    23.970
   537    809.180    23.992
   538    809.551    24.014
   539    809.922    24.037
   540    810.294    24.060
   541    810.666    24.082
   542    811.038    24.104
   543    811.411    24.127
   544    811.784    24.149
   545    812.157    24.172
   546    812.531    24.195
   547    812.905    24.217
   548    813.279    24.240
   549    813.654    24.263
   550    814.029    24.286
   551    814.404    24.308
   552    814.779    24.331
   553    815.155    24.354
   554    815.532    24.377
   555    815.908    24.399
   556    816.285    24.422
   557    816.662    24.446
   558    817.040    24.468
   559    817.418    24.492
   560    817.796    24.515
   561    818.175    24.537
   562    818.553    24.561
   563    818.933    24.584
   564    819.312    24.607
   565    819.692    24.631
   566    820.072    24.653
   567    820.453    24.677
   568    820.834    24.700
   569    821.215    24.724
   570    821.597    24.747
   571    821.978    24.771
   572    822.361    24.794
   573    822.743    24.817
   574    823.126    24.841
   575    823.509    24.864
   576    823.893    24.888
   577    824.277    24.911
   578    824.661    24.935
   579    825.046    24.958
   580    825.431    24.982
   581    825.816    25.005
   582    826.202    25.029
   583    826.587    25.053
   584    826.974    25.076
   585    827.360    25.100
   586    827.747    25.124
   587    828.135    25.148
   588    828.522    25.171
   589    828.910    25.196
   590    829.299    25.219
   591    829.687    25.243
   592    830.076    25.268
   593    830.466    25.292
   594    830.856    25.315
   595    831.246    25.340
   596    831.636    25.363
   597    832.027    25.388
   598    832.418    25.412
   599    832.809    25.436
   600    833.201    25.460
   601    833.593    25.484
   602    833.986    25.508
   603    834.379    25.533
   604    834.772    25.556
   605    835.166    25.581
   606    835.559    25.606
   607    835.954    25.630
   608    836.348    25.654
   609    836.743    25.679
   610    837.139    25.703
   611    837.534    25.727
   612    837.930    25.752
   613    838.327    25.777
   614    838.723    25.801
   615    839.120    25.826
   616    839.518    25.850
   617    839.916    25.875
   618    840.314    25.899
   619    840.712    25.924
   620    841.111    25.949
   621    841.510    25.974
   622    841.910    25.998
   623    842.310    26.023
   624    842.710    26.048
   625    843.111    26.073
   626    843.512    26.098
   627    843.913    26.122
   628    844.315    26.147
   629    844.717    26.172
   630    845.119    26.197
   631    845.522    26.222
   632    845.925    26.247
   633    846.329    26.273
   634    846.732    26.298
   635    847.137    26.323
   636    847.541    26.348
   637    847.946    26.374
   638    848.352    26.399
   639    848.757    26.423
   640    849.163    26.449
   641    849.570    26.474
   642    849.977    26.500
   643    850.384    26.525
   644    850.791    26.551
   645    851.199    26.576
   646    851.607    26.601
   647    852.016    26.627
   648    852.411    26.652
   649    852.718    26.671
   650    853.026    26.691
   651    853.334    26.709
   652    853.642    26.729
   653    853.950    26.748
   654    854.259    26.768
   655    854.568    26.786
   656    854.877    26.806
   657    855.186    26.825
   658    855.495    26.845
   659    855.805    26.864
   660    856.115    26.883
   661    856.426    26.903
   662    856.736    26.922
   663    857.047    26.942
   664    857.358    26.961
   665    857.669    26.981
   666    857.981    27.001
   667    858.293    27.020
   668    858.605    27.040
   669    858.917    27.060
   670    859.229    27.079
   671    859.542    27.099
   672    859.855    27.118
   673    860.168    27.138
   674    860.482    27.158
   675    860.795    27.178
   676    861.109    27.197
   677    861.424    27.217
   678    861.738    27.237
   679    862.053    27.256
   680    862.368    27.277
   681    862.683    27.297
   682    862.998    27.317
   683    863.314    27.336
   684    863.630    27.356
   685    863.946    27.377
   686    864.263    27.396
   687    864.579    27.416
   688    864.896    27.436
   689    865.214    27.457
   690    865.531    27.477
   691    865.849    27.496
   692    866.167    27.517
   693    866.485    27.537
   694    866.803    27.557
   695    867.122    27.577
   696    867.441    27.597
   697    867.760    27.618
   698    868.080    27.638
   699    868.399    27.659
   700    868.719    27.678
   701    869.040    27.699
   702    869.360    27.719
   703    869.681    27.740
   704    870.002    27.760
   705    870.323    27.781
   706    870.645    27.801
   707    870.966    27.822
   708    871.288    27.842
   709    871.611    27.863
   710    871.933    27.883
   711    872.256    27.903
   712    872.579    27.924
   713    872.902    27.945
   714    873.226    27.965
   715    873.550    27.986
   716    873.874    28.007
   717    874.198    28.028
   718    874.523    28.048
   719    874.847    28.069
   720    875.173    28.090
   721    875.498    28.111
   722    875.823    28.132
   723    876.149    28.153
   724    876.475    28.173
   725    876.802    28.194
   726    877.128    28.215
   727    877.455    28.236
   728    877.783    28.257
   729    878.110    28.279
   730    878.438    28.300
   731    878.766    28.321
   732    879.094    28.342
   733    879.422    28.363
   734    879.751    28.384
   735    880.080    28.405
   736    880.409    28.426
   737    880.739    28.447
   738    881.069    28.469
   739    881.399    28.491
   740    881.729    28.512
   741    882.060    28.533
   742    882.390    28.555
   743    882.721    28.576
   744    883.053    28.597
   745    883.384    28.619
   746    883.716    28.640
   747    884.049    28.662
   748    884.381    28.683
   749    884.714    28.705
   750    885.047    28.727
   751    885.380    28.748
   752    885.713    28.770
   753    886.047    28.791
   754    886.381    28.813
   755    886.715    28.835
   756    887.050    28.857
   757    887.385    28.879
   758    887.720    28.900
   759    888.055    28.923
   760    888.391    28.944
   761    888.727    28.966
   762    889.063    28.988
   763    889.399    29.010
   764    889.736    29.032
   765    890.073    29.054
   766    890.410    29.076
   767    890.748    29.098
   768    891.086    29.121
   769    891.424    29.142
   770    891.762    29.165
   771    892.101    29.186
   772    892.440    29.209
   773    892.779    29.231
   774    893.118    29.254
   775    893.458    29.276
   776    893.798    29.298
   777    894.138    29.321
   778    894.479    29.343
   779    894.820    29.365
   780    895.161    29.388
   781    895.502    29.410
   782    895.844    29.433
   783    896.185    29.456
   784    896.528    29.478
   785    896.870    29.501
   786    897.213    29.523
   787    897.556    29.547
   788    897.899    29.569
   789    898.243    29.592
   790    898.586    29.615
   791    898.931    29.637
   792    899.275    29.660
   793    899.620    29.683
   794    899.965    29.706
   795    900.310    29.729
   796    900.655    29.752
   797    901.001    29.775
   798    901.347    29.798
   799    901.694    29.821
   800    902.040    29.844
   801    902.387    29.867
   802    902.734    29.890
   803    903.082    29.914
   804    903.429    29.937
   805    903.777    29.960
   806    904.120    29.983
   807    904.459    30.006
   808    904.798    30.028
   809    905.137    30.051
   810    905.476    30.074
   811    905.815    30.096
   812    906.154    30.119
   813    906.493    30.143
   814    906.832    30.165
   815    907.171    30.188
   816    907.510    30.211
   817    907.849    30.234
   818    908.188    30.256
   819    908.527    30.279
   820    908.866    30.302
   821    909.205    30.325
   822    909.544    30.348
   823    909.883    30.371
   824    910.222    30.393
   825    910.561    30.417
   826    910.900    30.439
   827    911.235    30.462
   828    911.590    30.486
   829    911.945    30.510
   830    912.301    30.534
   831    912.656    30.559
   832    913.012    30.583
   833    913.369    30.607
   834    913.725    30.631
   835    914.082    30.656
   836    914.439    30.680
   837    914.796    30.704
   838    915.154    30.728
   839    915.512    30.754
   840    915.870    30.778
   841    916.229    30.803
   842    916.588    30.827
   843    916.947    30.851
   844    917.306    30.876
   845    917.666    30.901
   846    918.026    30.926
   847    918.386    30.950
   848    918.747    30.975
   849    919.108    30.999
   850    919.469    31.025
   851    919.830    31.049
   852    920.192    31.074
   853    920.554    31.100
   854    920.917    31.124
   855    921.279    31.149
   856    921.642    31.175
   857    922.005    31.199
   858    922.369    31.225
   859    922.733    31.250
   860    923.097    31.275
   861    923.461    31.300
   862    923.826    31.325
   863    924.191    31.351
   864    924.556    31.376
   865    924.922    31.401
   866    925.288    31.427
   867    925.654    31.452
   868    926.021    31.478
   869    926.387    31.503
   870    926.754    31.528
   871    927.122    31.554
   872    927.490    31.580
   873    927.858    31.605
   874    928.226    31.631
   875    928.594    31.657
   876    928.963    31.682
   877    929.333    31.709
   878    929.702    31.735
   879    930.072    31.760
   880    930.442    31.786
   881    930.812    31.811
   882    931.183    31.837
   883    931.554    31.864
   884    931.925    31.890
   885    932.297    31.916
   886    932.669    31.942
   887    933.041    31.968
   888    933.414    31.994
   889    933.787    32.021
   890    934.160    32.047
   891    934.533    32.073
   892    934.907    32.099
   893    935.281    32.125
   894    935.655    32.152
   895    936.030    32.179
   896    936.405    32.205
   897    936.780    32.231
   898    937.156    32.258
   899    937.532    32.284
   900    937.908    32.311
   901    938.285    32.338
   902    938.662    32.365
   903    939.039    32.392
   904    939.416    32.418
   905    939.794    32.445
   906    940.172    32.471
   907    940.550    32.498
   908    940.929    32.525
   909    941.308    32.552
   910    941.688    32.579
   911    942.067    32.606
   912    942.447    32.633
   913    942.827    32.661
   914    943.208    32.687
   915    943.589    32.714
   916    943.970    32.742
   917    944.352    32.768
   918    944.733    32.796
   919    945.116    32.823
   920    945.498    32.851
   921    945.881    32.877
   922    946.264    32.905
   923    946.647    32.933
   924    947.031    32.960
   925    947.415    32.988
   926    947.800    33.015
   927    948.184    33.043
   928    948.569    33.070
   929    948.955    33.098
   930    949.340    33.125
   931    949.726    33.153
   932    950.113    33.181
   933    950.499    33.209
   934    950.886    33.237
   935    951.273    33.265
   936    951.661    33.293
   937    952.049    33.321
   938    952.437    33.348
   939    952.825    33.376
   940    953.214    33.404
   941    953.604    33.432
   942    953.993    33.460
   943    954.383    33.489
   944    954.773    33.517
   945    955.163    33.545
   946    955.554    33.573
   947    955.945    33.601
   948    956.337    33.629
   949    956.729    33.657
   950    957.121    33.686
   951    957.513    33.715
   952    957.906    33.743
   953    958.299    33.772
   954    958.692    33.800
   955    959.086    33.828
   956    959.480    33.857
   957    959.874    33.886
   958    960.269    33.914
   959    960.664    33.943
   960    961.060    33.971
   961    961.455    34.001
   962    961.851    34.029
   963    962.248    34.058
   964    962.644    34.087
   965    963.041    34.116
   966    963.439    34.145
   967    963.836    34.174
   968    964.234    34.203
   969    964.633    34.232
   970    965.031    34.261
   971    965.430    34.290
   972    965.830    34.319
   973    966.229    34.348
   974    966.630    34.377
   975    967.030    34.407
   976    967.431    34.436
   977    967.832    34.465
   978    968.233    34.495
   979    968.635    34.524
   980    969.037    34.554
   981    969.439    34.583
   982    969.842    34.613
   983    970.245    34.642
   984    970.648    34.672
   985    971.052    34.701
   986    971.456    34.731
   987    971.860    34.760
   988    972.265    34.790
   989    972.670    34.820
   990    973.075    34.849
   991    973.481    34.880
   992    973.887    34.909
   993    974.294    34.939
   994    974.631    34.964
   995    975.039    34.994
   996    975.446    35.024
   997    975.854    35.054
   998    976.262    35.084
   999    976.670    35.114
  1000    977.079    35.144
  1001    977.488    35.174
  1002    977.898    35.204
  1003    978.308    35.234
  1004    978.718    35.265
  1005    979.128    35.295
  1006    979.539    35.326
  1007    979.950    35.356
  1008    980.362    35.387
  1009    980.774    35.417
  1010    981.186    35.447
  1011    981.599    35.478
  1012    982.011    35.508
  1013    982.425    35.539
  1014    982.838    35.569
  1015    983.252    35.600
  1016    983.667    35.631
  1017    984.081    35.661
  1018    984.496    35.692
  1019    984.912    35.723
  1020    985.327    35.754
  1021    985.743    35.784
  1022    986.160    35.816
  1023    986.576    35.846
  1024    986.993    35.877
  1025    987.411    35.908
  1026    987.829    35.939
  1027    988.247    35.970
  1028    988.665    36.001
  1029    989.084    36.032
  1030    989.503    36.063
  1031    989.923    36.094
  1032    990.343    36.126
  1033    990.763    36.157
  1034    991.183    36.188
  1035    991.604    36.219
  1036    992.026    36.251
  1037    992.447    36.282
  1038    992.869    36.314
  1039    993.292    36.345
  1040    993.714    36.376
  1041    994.137    36.408
  1042    994.561    36.440
  1043    994.984    36.471
  1044    995.409    36.503
  1045    995.833    36.534
  1046    996.258    36.566
  1047    996.683    36.598
  1048    997.109    36.630
  1049    997.535    36.662
  1050    997.961    36.693
  1051    998.387    36.725
  1052    998.814    36.757
  1053    999.242    36.788
  1054    999.670    36.821
  1055   1000.098    36.852
  1056   1000.526    36.885
  1057   1000.955    36.917
  1058   1001.384    36.949
  1059   1001.813    36.981
  1060   1002.243    37.012
  1061   1002.674    37.045
  1062   1003.104    37.077
  1063   1003.535    37.110
  1064   1003.966    37.142
  1065   1004.398    37.174
  1066   1004.830    37.206
  1067   1005.263    37.239
  1068   1005.695    37.271
  1069   1006.129    37.304
  1070   1006.562    37.336
  1071   1006.996    37.369
  1072   1007.430    37.401
  1073   1007.865    37.434
  1074   1008.300    37.467
  1075   1008.735    37.499
  1076   1009.171    37.531
  1077   1009.607    37.564
  1078   1010.044    37.597
  1079   1010.480    37.629
  1080   1010.918    37.663
  1081   1011.355    37.696
  1082   1011.793    37.728
  1083   1012.231    37.762
  1084   1012.670    37.794
  1085   1013.109    37.827
  1086   1013.549    37.861
  1087   1013.988    37.893
  1088   1014.429    37.927
  1089   1014.869    37.959
  1090   1015.310    37.993
  1091   1015.751    38.026
  1092   1016.193    38.059
  1093   1016.635    38.092
  1094   1017.078    38.126
  1095   1017.520    38.159
  1096   1017.964    38.192
  1097   1018.407    38.226
  1098   1018.851    38.259
  1099   1019.296    38.292
  1100   1019.740    38.326
  1101   1020.185    38.359
  1102   1020.631    38.393
  1103   1021.077    38.427
  1104   1021.523    38.461
  1105   1021.969    38.494
  1106   1022.416    38.528
  1107   1022.864    38.562
  1108   1023.312    38.596
  1109   1023.760    38.629
  1110   1024.208    38.663
  1111   1024.657    38.697
  1112   1025.106    38.731
  1113   1025.556    38.765
  1114   1026.006    38.798
  1115   1026.457    38.833
  1116   1026.907    38.867
  1117   1027.359    38.901
  1118   1027.810    38.936
  1119   1028.262    38.969
  1120   1028.715    39.003
  1121   1029.167    39.038
  1122   1029.620    39.072
  1123   1030.074    39.107
  1124   1030.528    39.141
  1125   1030.982    39.176
  1126   1031.437    39.210
  1127   1031.892    39.244
  1128   1032.347    39.278
  1129   1032.803    39.313
  1130   1033.260    39.348
  1131   1033.716    39.382
  1132   1034.173    39.417
  1133   1034.631    39.452
  1134   1035.089    39.487
  1135   1035.547    39.522
  1136   1036.005    39.556
  1137   1036.465    39.591
  1138   1036.924    39.626
  1139   1037.384    39.661
  1140   1037.844    39.696
  1141   1038.305    39.730
  1142   1038.766    39.765
  1143   1039.227    39.800
  1144   1039.689    39.836
  1145   1040.151    39.871
  1146   1040.614    39.907
  1147   1041.077    39.942
  1148   1041.540    39.977
  1149   1042.004    40.012
  1150   1042.468    40.048
  1151   1042.933    40.083
  1152   1043.398    40.118
  1153   1043.863    40.154
  1154   1044.329    40.189
  1155   1044.795    40.224
  1156   1045.262    40.260
  1157   1045.729    40.295
  1158   1046.196    40.332
  1159   1046.650    40.366
  1160   1047.099    40.401
  1161   1047.548    40.435
  1162   1047.997    40.469
  1163   1048.446    40.503
  1164   1048.895    40.538
  1165   1049.344    40.572
  1166   1049.793    40.606
  1167   1050.242    40.640
  1168   1050.691    40.675
  1169   1051.140    40.709
  1170   1051.589    40.744
  1171   1052.039    40.778
  1172   1052.488    40.812
  1173   1052.937    40.846
  1174   1053.386    40.881
  1175   1053.835    40.915
  1176   1054.284    40.950
  1177   1054.733    40.984
  1178   1055.182    41.019
  1179   1055.631    41.053
  1180   1056.075    41.087
  1181   1056.551    41.124
  1182   1057.027    41.160
  1183   1057.504    41.196
  1184   1057.981    41.233
  1185   1058.459    41.270
  1186   1058.936    41.306
  1187   1059.415    41.343
  1188   1059.893    41.380
  1189   1060.372    41.417
  1190   1060.852    41.454
  1191   1061.332    41.490
  1192   1061.812    41.527
  1193   1062.293    41.564
  1194   1062.774    41.601
  1195   1063.256    41.638
  1196   1063.738    41.675
  1197   1064.220    41.713
  1198   1064.703    41.749
  1199   1065.186    41.787
  1200   1065.670    41.824
  1201   1066.154    41.862
  1202   1066.639    41.899
  1203   1067.124    41.936
  1204   1067.609    41.973
  1205   1068.095    42.011
  1206   1068.581    42.048
  1207   1069.067    42.086
  1208   1069.554    42.123
  1209   1070.042    42.161
  1210   1070.530    42.199
  1211   1071.018    42.236
  1212   1071.507    42.275
  1213   1071.996    42.312
  1214   1072.485    42.350
  1215   1072.975    42.388
  1216   1073.466    42.425
  1217   1073.957    42.464
  1218   1074.448    42.502
  1219   1074.940    42.539
  1220   1075.432    42.578
  1221   1075.924    42.616
  1222   1076.417    42.654
  1223   1076.911    42.692
  1224   1077.404    42.730
  1225   1077.899    42.769
  1226   1078.393    42.807
  1227   1078.888    42.845
  1228   1079.384    42.884
  1229   1079.880    42.922
  1230   1080.376    42.961
  1231   1080.873    42.999
  1232   1081.370    43.038
  1233   1081.868    43.076
  1234   1082.366    43.115
  1235   1082.865    43.154
  1236   1083.364    43.193
  1237   1083.863    43.232
  1238   1084.363    43.271
  1239   1084.863    43.310
  1240   1085.364    43.348
  1241   1085.865    43.387
  1242   1086.367    43.426
  1243   1086.869    43.466
  1244   1087.371    43.505
  1245   1087.874    43.544
  1246   1088.378    43.583
  1247   1088.881    43.622
  1248   1089.386    43.662
  1249   1089.890    43.701
  1250   1090.395    43.740
  1251   1090.901    43.780
  1252   1091.407    43.820
  1253   1091.913    43.859
  1254   1092.420    43.899
  1255   1092.928    43.938
  1256   1093.435    43.978
  1257   1093.944    44.018
  1258   1094.452    44.057
  1259   1094.961    44.097
  1260   1095.471    44.137
  1261   1095.981    44.176
  1262   1096.491    44.216
  1263   1097.002    44.256
  1264   1097.514    44.296
  1265   1098.025    44.337
  1266   1098.538    44.377
  1267   1099.050    44.417
  1268   1099.563    44.457
  1269   1100.077    44.497
  1270   1100.591    44.538
  1271   1101.106    44.578
  1272   1101.621    44.618
  1273   1102.136    44.659
  1274   1102.652    44.699
  1275   1103.168    44.740
  1276   1103.685    44.780
  1277   1104.202    44.821
  1278   1104.720    44.862
  1279   1105.238    44.902
  1280   1105.756    44.943
  1281   1106.276    44.984
  1282   1106.795    45.025
  1283   1107.315    45.066
  1284   1107.835    45.107
  1285   1108.356    45.147
  1286   1108.878    45.189
  1287   1109.399    45.230
  1288   1109.922    45.271
  1289   1110.444    45.313
  1290   1110.968    45.353
  1291   1111.491    45.395
  1292   1112.015    45.436
  1293   1112.540    45.477
  1294   1113.065    45.519
  1295   1113.590    45.560
  1296   1114.116    45.602
  1297   1114.643    45.643
  1298   1115.170    45.685
  1299   1115.697    45.727
  1300   1116.225    45.769
  1301   1116.753    45.810
  1302   1117.282    45.853
  1303   1117.811    45.894
  1304   1118.341    45.936
  1305   1118.871    45.978
  1306   1119.402    46.020
  1307   1119.933    46.063
  1308   1120.464    46.104
  1309   1120.996    46.147
  1310   1121.529    46.188
  1311   1122.062    46.231
  1312   1122.595    46.273
  1313   1123.129    46.315
  1314   1123.664    46.358
  1315   1124.199    46.400
  1316   1124.734    46.443
  1317   1125.270    46.486
  1318   1125.806    46.528
  1319   1126.343    46.570
  1320   1126.880    46.613
  1321   1127.418    46.656
  1322   1127.956    46.699
  1323   1128.495    46.742
  1324   1129.034    46.785
  1325   1129.574    46.828
  1326   1130.114    46.871
  1327   1130.655    46.914
  1328   1131.196    46.957
  1329   1131.738    47.000
  1330   1132.280    47.043
  1331   1132.822    47.087
  1332   1133.365    47.130
  1333   1133.909    47.173
  1334   1134.453    47.216
  1335   1134.997    47.260
  1336   1135.542    47.303
  1337   1136.088    47.347
  1338   1136.634    47.391
  1339   1137.161    47.433
  1340   1137.682    47.475
  1341   1138.204    47.516
  1342   1138.726    47.558
  1343   1139.247    47.600
  1344   1139.769    47.642
  1345   1140.291    47.683
  1346   1140.813    47.724
  1347   1141.334    47.766
  1348   1141.856    47.808
  1349   1142.378    47.850
  1350   1142.899    47.892
  1351   1143.421    47.934
  1352   1143.943    47.975
  1353   1144.464    48.017
  1354   1144.986    48.059
  1355   1145.508    48.101
  1356   1146.029    48.142
  1357   1146.551    48.184
  1358   1147.073    48.226
  1359   1147.594    48.268
  1360   1148.116    48.310
  1361   1148.638    48.351
  1362   1149.160    48.394
  1363   1149.681    48.435
  1364   1150.203    48.477
  1365   1150.725    48.519
  1366   1151.246    48.561
  1367   1151.768    48.603
  1368   1152.290    48.645
  1369   1152.811    48.687
  1370   1153.333    48.729
  1371   1153.855    48.770
  1372   1154.376    48.813
  1373   1154.898    48.855
  1374   1155.420    48.897
  1375   1155.942    48.938
  1376   1156.463    48.981
  1377   1156.985    49.023
  1378   1157.506    49.064
  1379   1158.028    49.106
  1380   1158.550    49.149
  1381   1159.072    49.191
  1382   1159.593    49.232
  1383   1160.115    49.274
  1384   1160.637    49.317
  1385   1161.158    49.359
  1386   1161.680    49.400
  1387   1162.202    49.443
  1388   1162.723    49.485
  1389   1163.245    49.527
  1390   1163.767    49.569
  1391   1164.288    49.611
  1392   1164.810    49.653
  1393   1165.332    49.696
  1394   1165.854    49.737
  1395   1166.375    49.779
  1396   1166.897    49.822
  1397   1167.418    49.864
  1398   1167.940    49.906
  1399   1168.462    49.948
  1400   1168.984    49.991
  1401   1169.505    50.032
  1402   1170.027    50.075
  1403   1170.549    50.117
  1404   1171.070    50.160
  1405   1171.592    50.201
  1406   1172.114    50.243
  1407   1172.635    50.286
  1408   1173.157    50.328
  1409   1173.679    50.370
  1410   1174.200    50.412
  1411   1174.722    50.455
  1412   1175.244    50.497
  1413   1175.766    50.539
  1414   1176.287    50.581
  1415   1176.809    50.624
  1416   1177.331    50.666
  1417   1177.852    50.708
  1418   1178.374    50.750
  1419   1178.896    50.793
  1420   1179.417    50.835
  1421   1179.939    50.877
  1422   1180.461    50.920
  1423   1180.982    50.962
  1424   1181.504    51.004
  1425   1182.026    51.047
  1426   1182.547    51.089
  1427   1183.069    51.132
  1428   1183.591    51.173
  1429   1184.113    51.216
  1430   1184.634    51.259
  1431   1185.156    51.300
  1432   1185.678    51.343
  1433   1186.199    51.385
  1434   1186.721    51.428
  1435   1187.243    51.470
  1436   1187.764    51.512
  1437   1188.286    51.555
  1438   1188.808    51.598
  1439   1189.329    51.640
  1440   1189.851    51.682
  1441   1190.373    51.724
  1442   1190.894    51.767
  1443   1191.416    51.809
  1444   1191.938    51.852
  1445   1192.459    51.895
  1446   1192.981    51.936
  1447   1193.503    51.979
  1448   1194.025    52.022
  1449   1194.546    52.064
  1450   1195.068    52.106
  1451   1195.590    52.149
  1452   1196.111    52.191
  1453   1196.633    52.234
  1454   1197.155    52.276
  1455   1197.676    52.319
  1456   1198.198    52.361
  1457   1198.720    52.404
  1458   1199.241    52.446
  1459   1199.763    52.489
  1460   1200.285    52.531
  1461   1200.807    52.574
  1462   1201.328    52.616
  1463   1201.850    52.659
  1464   1202.371    52.701
  1465   1202.893    52.744
  1466   1203.415    52.786
  1467   1203.937    52.829
  1468   1204.458    52.871
  1469   1204.980    52.914
  1470   1205.502    52.956
  1471   1206.023    52.999
  1472   1206.545    53.042
  1473   1207.067    53.084
  1474   1207.588    53.127
  1475   1208.110    53.169
  1476   1208.632    53.212
  1477   1209.153    53.254
  1478   1209.675    53.297
  1479   1210.197    53.340
  1480   1210.719    53.382
  1481   1211.240    53.424
  1482   1211.762    53.467
  1483   1212.283    53.510
  1484   1212.805    53.552
  1485   1213.327    53.595
  1486   1213.849    53.637
  1487   1214.370    53.680
  1488   1214.892    53.723
  1489   1215.414    53.766
  1490   1215.935    53.808
  1491   1216.457    53.851
  1492   1216.974    53.893
  1493   1217.481    53.934
  1494   1217.988    53.976
  1495   1218.496    54.018
  1496   1219.004    54.058
  1497   1219.513    54.100
  1498   1220.022    54.142
  1499   1220.531    54.183
  1500   1221.041    54.225
  1501   1221.552    54.267
  1502   1222.063    54.309
  1503   1222.574    54.351
  1504   1223.085    54.392
  1505   1223.597    54.434
  1506   1224.110    54.476
  1507   1224.623    54.518
  1508   1225.136    54.560
  1509   1225.650    54.602
  1510   1226.164    54.644
  1511   1226.679    54.686
  1512   1227.194    54.728
  1513   1227.709    54.771
  1514   1228.225    54.812
  1515   1228.742    54.854
  1516   1229.258    54.897
  1517   1229.775    54.939
  1518   1230.293    54.982
  1519   1230.811    55.024
  1520   1231.330    55.067
  1521   1231.849    55.109
  1522   1232.368    55.151
  1523   1232.888    55.194
  1524   1233.408    55.237
  1525   1233.929    55.279
  1526   1234.450    55.322
  1527   1234.971    55.365
  1528   1235.493    55.407
  1529   1236.016    55.450
  1530   1236.538    55.493
  1531   1237.062    55.536
  1532   1237.585    55.579
  1533   1238.110    55.621
  1534   1238.634    55.664
  1535   1239.159    55.707
  1536   1239.685    55.751
  1537   1240.211    55.793
  1538   1240.737    55.836
  1539   1241.264    55.879
  1540   1241.791    55.922
  1541   1242.319    55.966
  1542   1242.847    56.009
  1543   1243.375    56.053
  1544   1243.904    56.096
  1545   1244.434    56.139
  1546   1244.964    56.183
  1547   1245.494    56.226
  1548   1246.025    56.269
  1549   1246.556    56.313
  1550   1247.088    56.356
  1551   1247.620    56.400
  1552   1248.152    56.443
  1553   1248.685    56.487
  1554   1249.219    56.531
  1555   1249.753    56.574
  1556   1250.287    56.618
  1557   1250.822    56.662
  1558   1251.357    56.706
  1559   1251.893    56.750
  1560   1252.429    56.794
  1561   1252.966    56.838
  1562   1253.503    56.882
  1563   1254.040    56.925
  1564   1254.578    56.970
  1565   1255.116    57.014
  1566   1255.655    57.058
  1567   1256.195    57.102
  1568   1256.734    57.146
  1569   1257.275    57.190
  1570   1257.815    57.234
  1571   1258.357    57.279
  1572   1258.898    57.323
  1573   1259.440    57.368
  1574   1259.983    57.413
  1575   1260.526    57.457
  1576   1261.069    57.502
  1577   1261.613    57.546
  1578   1262.157    57.591
  1579   1262.702    57.635
  1580   1263.247    57.680
  1581   1263.793    57.724
  1582   1264.339    57.769
  1583   1264.886    57.814
  1584   1265.433    57.859
  1585   1265.981    57.903
  1586   1266.529    57.948
  1587   1267.077    57.993
  1588   1267.626    58.038
  1589   1268.176    58.083
  1590   1268.726    58.128
  1591   1269.276    58.173
  1592   1269.827    58.218
  1593   1270.378    58.264
  1594   1270.930    58.309
  1595   1271.482    58.354
  1596   1272.035    58.400
  1597   1272.588    58.445
  1598   1273.128    58.489
  1599   1273.663    58.533
  1600   1274.198    58.577
  1601   1274.732    58.621
  1602   1275.267    58.664
  1603   1275.801    58.708
  1604   1276.336    58.752
  1605   1276.870    58.796
  1606   1277.405    58.840
  1607   1277.939    58.884
  1608   1278.474    58.928
  1609   1279.008    58.972
  1610   1279.543    59.015
  1611   1280.077    59.059
  1612   1280.612    59.103
  1613   1281.146    59.147
  1614   1281.681    59.190
  1615   1282.216    59.234
  1616   1282.750    59.278
  1617   1283.285    59.322
  1618   1283.819    59.366
  1619   1284.348    59.409
  1620   1284.911    59.456
  1621   1285.475    59.502
  1622   1286.039    59.548
  1623   1286.604    59.594
  1624   1287.169    59.641
  1625   1287.735    59.688
  1626   1288.301    59.734
  1627   1288.868    59.780
  1628   1289.435    59.827
  1629   1290.003    59.873
  1630   1290.571    59.921
  1631   1291.139    59.967
  1632   1291.709    60.014
  1633   1292.278    60.060
  1634   1292.848    60.107
  1635   1293.419    60.154
  1636   1293.990    60.201
  1637   1294.561    60.248
  1638   1295.133    60.295
  1639   1295.706    60.342
  1640   1296.279    60.389
  1641   1296.853    60.436
  1642   1297.427    60.484
  1643   1298.001    60.531
  1644   1298.576    60.578
  1645   1299.151    60.625
  1646   1299.727    60.672
  1647   1300.304    60.720
  1648   1300.881    60.767
  1649   1301.458    60.815
  1650   1302.036    60.863
  1651   1302.615    60.910
  1652   1303.194    60.958
  1653   1303.773    61.005
  1654   1304.353    61.053
  1655   1304.934    61.101
  1656   1305.515    61.149
  1657   1306.096    61.197
  1658   1306.678    61.244
  1659   1307.260    61.292
  1660   1307.843    61.340
  1661   1308.427    61.389
  1662   1309.011    61.437
  1663   1309.595    61.485
  1664   1310.180    61.532
  1665   1310.766    61.581
  1666   1311.352    61.630
  1667   1311.938    61.678
  1668   1312.525    61.726
  1669   1313.113    61.774
  1670   1313.701    61.823
  1671   1314.289    61.871
  1672   1314.878    61.920
  1673   1315.468    61.968
  1674   1316.058    62.018
  1675   1316.648    62.066
  1676   1317.239    62.115
  1677   1317.831    62.164
  1678   1318.423    62.213
  1679   1319.016    62.261
  1680   1319.609    62.310
  1681   1320.202    62.359
  1682   1320.796    62.408
  1683   1321.391    62.458
  1684   1321.986    62.507
  1685   1322.582    62.556
  1686   1323.178    62.605
  1687   1323.775    62.654
  1688   1324.372    62.703
  1689   1324.970    62.753
  1690   1325.568    62.802
  1691   1326.167    62.852
  1692   1326.766    62.901
  1693   1327.366    62.951
  1694   1327.967    63.001
  1695   1328.567    63.050
  1696   1329.169    63.100
  1697   1329.771    63.150
  1698   1330.373    63.199
  1699   1330.976    63.250
  1700   1331.580    63.300
  1701   1332.184    63.350
  1702   1332.788    63.399
  1703   1333.393    63.450
  1704   1333.999    63.500
  1705   1334.605    63.550
  1706   1335.212    63.600
  1707   1335.819    63.651
  1708   1336.427    63.701
  1709   1337.035    63.752
  1710   1337.644    63.802
  1711   1338.161    63.845
  1712   1338.669    63.887
  1713   1339.178    63.929
  1714   1339.687    63.972
  1715   1340.196    64.013
  1716   1340.706    64.055
  1717   1341.216    64.098
  1718   1341.727    64.140
  1719   1342.238    64.183
  1720   1342.749    64.225
  1721   1343.261    64.268
  1722   1343.773    64.310
  1723   1344.286    64.353
  1724   1344.799    64.396
  1725   1345.312    64.438
  1726   1345.826    64.481
  1727   1346.340    64.524
  1728   1346.855    64.567
  1729   1347.370    64.609
  1730   1347.886    64.652
  1731   1348.402    64.695
  1732   1348.918    64.738
  1733   1349.435    64.782
  1734   1349.952    64.824
  1735   1350.469    64.867
  1736   1350.987    64.910
  1737   1351.506    64.954
  1738   1352.025    64.997
  1739   1352.544    65.040
  1740   1353.063    65.083
  1741   1353.584    65.127
  1742   1354.104    65.170
  1743   1354.625    65.213
  1744   1355.146    65.257
  1745   1355.668    65.300
  1746   1356.190    65.343
  1747   1356.713    65.387
  1748   1357.236    65.431
  1749   1357.759    65.475
  1750   1358.283    65.518
  1751   1358.807    65.562
  1752   1359.332    65.606
  1753   1359.857    65.649
  1754   1360.383    65.693
  1755   1360.909    65.737
  1756   1361.435    65.782
  1757   1361.962    65.825
  1758   1362.489    65.869
  1759   1363.017    65.913
  1760   1363.545    65.958
  1761   1364.073    66.002
  1762   1364.602    66.046
  1763   1365.131    66.090
  1764   1365.661    66.135
  1765   1366.191    66.178
  1766   1366.722    66.223
  1767   1367.253    66.267
  1768   1367.785    66.312
  1769   1368.317    66.357
  1770   1368.849    66.401
  1771   1369.382    66.446
  1772   1369.915    66.491
  1773   1370.449    66.535
  1774   1370.983    66.580
  1775   1371.517    66.624
  1776   1372.052    66.669
  1777   1372.588    66.714
  1778   1373.123    66.759
  1779   1373.660    66.804
  1780   1374.196    66.849
  1781   1374.733    66.895
  1782   1375.271    66.939
  1783   1375.809    66.984
  1784   1376.347    67.030
  1785   1376.886    67.075
  1786   1377.425    67.120
  1787   1377.965    67.166
  1788   1378.505    67.211
  1789   1379.046    67.257
  1790   1379.587    67.302
  1791   1380.128    67.347
  1792   1380.670    67.393
  1793   1381.213    67.439
  1794   1381.756    67.485
  1795   1382.299    67.530
  1796   1382.842    67.576
  1797   1383.387    67.622
  1798   1383.931    67.667
  1799   1384.476    67.713
  1800   1385.022    67.759
  1801   1385.568    67.805
  1802   1386.114    67.852
  1803   1386.661    67.898
  1804   1387.208    67.943
  1805   1387.756    67.990
  1806   1388.304    68.036
  1807   1388.852    68.082
  1808   1389.401    68.129
  1809   1389.951    68.175
  1810   1390.501    68.221
  1811   1391.051    68.268
  1812   1391.602    68.315
  1813   1392.153    68.361
  1814   1392.705    68.407
  1815   1393.257    68.454
  1816   1393.810    68.501
  1817   1394.363    68.547
  1818   1394.916    68.595
  1819   1395.470    68.641
  1820   1396.025    68.688
  1821   1396.579    68.735
  1822   1397.135    68.782
  1823   1397.691    68.829
  1824   1398.247    68.877
  1825   1398.803    68.923
  1826   1399.361    68.971
  1827   1399.918    69.018
  1828   1400.476    69.065
  1829   1401.035    69.113
  1830   1401.594    69.160
  1831   1402.153    69.208
  1832   1402.713    69.255
  1833   1403.273    69.303
  1834   1403.834    69.350
  1835   1404.396    69.398
  1836   1404.957    69.445
  1837   1405.519    69.494
  1838   1406.082    69.541
  1839   1406.645    69.589
  1840   1407.209    69.638
  1841   1407.773    69.685
  1842   1408.337    69.733
  1843   1408.902    69.781
  1844   1409.468    69.829
  1845   1410.034    69.878
  1846   1410.600    69.925
  1847   1411.167    69.974
  1848   1411.734    70.023
  1849   1412.302    70.071
  1850   1412.870    70.120
  1851   1413.439    70.168
  1852   1414.008    70.217
  1853   1414.578    70.266
  1854   1415.148    70.313
  1855   1415.718    70.362
  1856   1416.289    70.411
  1857   1416.861    70.460
  1858   1417.433    70.509
  1859   1418.005    70.558
  1860   1418.578    70.607
  1861   1419.151    70.656
  1862   1419.725    70.705
  1863   1420.300    70.754
  1864   1420.874    70.803
  1865   1421.450    70.853
  1866   1422.026    70.902
  1867   1422.602    70.952
  1868   1423.178    71.001
  1869   1423.756    71.051
  1870   1424.333    71.100
  1871   1424.911    71.149
  1872   1425.490    71.199
  1873   1426.069    71.249
  1874   1426.649    71.299
  1875   1427.229    71.348
  1876   1427.809    71.398
  1877   1428.390    71.448
  1878   1428.972    71.499
  1879   1429.554    71.549
  1880   1430.136    71.598
  1881   1430.719    71.648
  1882   1431.303    71.699
  1883   1431.887    71.749
  1884   1432.471    71.799
  1885   1433.056    71.850
  1886   1433.641    71.900
  1887   1434.227    71.950
  1888   1434.814    72.001
  1889   1435.400    72.052
  1890   1435.988    72.103
  1891   1436.576    72.153
  1892   1437.164    72.204
  1893   1437.753    72.254
  1894   1438.342    72.305
  1895   1438.932    72.356
  1896   1439.522    72.408
  1897   1440.113    72.458
  1898   1440.704    72.509
  1899   1441.296    72.561
  1900   1441.888    72.612
  1901   1442.481    72.663
  1902   1443.074    72.714
  1903   1443.653    72.764
  1904   1444.226    72.814
  1905   1444.799    72.863
  1906   1445.372    72.913
  1907   1445.945    72.963
  1908   1446.518    73.013
  1909   1447.091    73.062
  1910   1447.664    73.111
  1911   1448.237    73.161
  1912   1448.810    73.210
  1913   1449.383    73.260
  1914   1449.956    73.310
  1915   1450.529    73.359
  1916   1451.102    73.409
  1917   1451.675    73.458
  1918   1452.248    73.508
  1919   1452.821    73.557
  1920   1453.394    73.608
  1921   1453.967    73.657
  1922   1454.540    73.707
  1923   1455.114    73.757
  1924   1455.687    73.806
  1925   1456.260    73.855
  1926   1456.833    73.905
  1927   1457.406    73.955
  1928   1457.979    74.004
  1929   1458.552    74.054
  1930   1459.125    74.103
  1931   1459.698    74.153
  1932   1460.265    74.202
  1933   1460.873    74.255
  1934   1461.482    74.307
  1935   1462.091    74.361
  1936   1462.701    74.413
  1937   1463.311    74.465
  1938   1463.922    74.519
  1939   1464.533    74.572
  1940   1465.145    74.625
  1941   1465.758    74.678
  1942   1466.371    74.731
  1943   1466.984    74.784
  1944   1467.598    74.837
  1945   1468.212    74.890
  1946   1468.827    74.943
  1947   1469.443    74.996
  1948   1470.059    75.050
  1949   1470.675    75.103
  1950   1471.292    75.156
  1951   1471.910    75.209
  1952   1472.528    75.263
  1953   1473.146    75.316
  1954   1473.765    75.369
  1955   1474.385    75.423
  1956   1475.005    75.476
  1957   1475.625    75.530
  1958   1476.247    75.584
  1959   1476.868    75.637
  1960   1477.490    75.691
  1961   1478.113    75.744
  1962   1478.736    75.799
  1963   1479.360    75.852
  1964   1479.984    75.907
  1965   1480.609    75.960
  1966   1481.234    76.014
  1967   1481.860    76.068
  1968   1482.486    76.122
  1969   1483.113    76.175
  1970   1483.741    76.229
  1971   1484.369    76.283
  1972   1484.997    76.338
  1973   1485.626    76.392
  1974   1486.255    76.445
  1975   1486.885    76.499
  1976   1487.516    76.553
  1977   1488.147    76.607
  1978   1488.779    76.662
  1979   1489.411    76.716
  1980   1490.044    76.771
  1981   1490.677    76.825
  1982   1491.311    76.878
  1983   1491.945    76.933
  1984   1492.580    76.988
  1985   1493.215    77.041
  1986   1493.851    77.096
  1987   1494.487    77.150
  1988   1495.124    77.204
  1989   1495.762    77.259
  1990   1496.400    77.314
  1991   1497.038    77.368
  1992   1497.677    77.422
  1993   1498.317    77.477
  1994   1498.957    77.531
  1995   1499.598    77.587
  1996   1500.239    77.636
  1997   1500.881    77.679
  1998   1501.523    77.716
  1999   1502.166    77.792
  2000   1502.810    77.861
  2001   1503.454    77.921
  2002   1504.098    77.969
  2003   1504.743    78.024
  2004   1505.389    78.073
  2005   1506.035    78.130
  2006   1506.682    78.188
  2007   1507.329    78.243
  2008   1507.977    78.312
  2009   1508.625    78.372
  2010   1509.274    78.433
  2011   1509.924    78.486
  2012   1510.574    78.549
  2013   1511.224    78.604
  2014   1511.875    78.644
  2015   1512.527    78.688
  2016   1513.179    78.772
  2017   1513.832    78.835
  2018   1514.485    78.861
  2019   1515.139    78.908
  2020   1515.793    78.973
  2021   1516.448    79.019
  2022   1517.104    79.066
  2023   1517.760    79.105
  2024   1518.417    79.160
  2025   1519.074    79.210
  2026   1519.732    79.255
  2027   1520.390    79.282
  2028   1521.049    79.328
  2029   1521.708    79.411
  2030   1522.368    79.468
  2031   1523.029    79.494
  2032   1523.690    79.560
  2033   1524.352    79.640
  2034   1525.014    79.694
  2035   1525.677    79.737
  2036   1526.340    79.803
  2037   1527.004    79.868
  2038   1527.651    79.910
  2039   1528.292    79.974
  2040   1528.933    80.017
  2041   1529.573    80.070
  2042   1530.214    80.134
  2043   1530.854    80.165
  2044   1531.495    80.237
  2045   1532.135    80.271
  2046   1532.776    80.281
  2047   1533.417    80.320
  2048   1534.057    80.356
  2049   1534.698    80.413
  2050   1535.338    80.438
  2051   1535.979    80.461
  2052   1536.619    80.488
  2053   1537.260    80.438
  2054   1537.900    80.486
  2055   1538.541    80.507
  2056   1539.182    80.550
  2057   1539.822    80.589
  2058   1540.463    80.645
  2059   1541.096    80.723
  2060   1541.772    80.483
  2061   1542.449    80.822
  2062   1543.126    80.903
  2063   1543.803    80.923
  2064   1544.482    80.878
  2065   1545.160    80.973
  2066   1545.840    81.097
  2067   1546.520    81.140
  2068   1547.200    81.187
  2069   1547.881    81.225
  2070   1548.563    81.291
  2071   1549.245    81.276
  2072   1549.928    81.311
  2073   1550.612    81.431
  2074   1551.296    81.536
  2075   1551.980    81.593
  2076   1552.666    81.688
  2077   1553.351    81.778
  2078   1554.038    81.807
  2079   1554.725    82.005
  2080   1555.412    82.026
  2081   1556.100    82.111
  2082   1556.789    82.275
  2083   1557.478    82.418
  2084   1558.168    82.641
  2085   1558.859    82.747
  2086   1559.550    82.912
  2087   1560.242    82.826
  2088   1560.934    83.145
  2089   1561.627    83.209
  2090   1562.320    83.515
  2091   1563.014    83.569
  2092   1563.709    83.587
  2093   1564.404    83.969
  2094   1565.100    83.991
  2095   1565.797    84.275
  2096   1566.494    83.779
  2097   1567.192    84.237
  2098   1567.890    84.556
  2099   1568.589    84.714
  2100   1569.288    84.563
  2101   1569.988    84.652
  2102   1570.689    84.879
  2103   1571.390    84.808
  2104   1572.092    83.997
  2105   1572.795    84.826
  2106   1573.498    84.688
  2107   1574.201    85.237
  2108   1574.906    85.244
  2109   1575.611    85.018
  2110   1576.316    84.992
  2111   1577.022    85.062
  2112   1577.729    85.264
  2113   1578.437    84.980
  2114   1579.145    84.932
  2115   1579.853    85.068
  2116   1580.562    85.275
  2117   1581.272    85.203
  2118   1581.983    85.267
  2119   1582.694    85.114
  2120   1583.405    84.835
  2121   1584.118    85.060
  2122   1584.831    84.999
  2123   1585.544    85.292
  2124   1586.258    84.786
  2125   1586.973    85.393
  2126   1587.688    85.251
  2127   1588.404    85.326
  2128   1589.121    85.290
  2129   1589.838    85.062
  2130   1590.556    85.117
  2131   1591.275    85.569
  2132   1591.994    85.469
  2133   1592.714    85.707
  2134   1593.434    85.088
  2135   1594.155    85.589
  2136   1594.877    85.973
  2137   1595.599    85.625
  2138   1596.322    85.282
  2139   1597.045    85.853
  2140   1597.769    86.096
  2141   1598.494    85.984
  2142   1599.220    86.159
  2143   1599.946    86.212
  2144   1600.672    86.251
  2145   1601.400    85.841
  2146   1602.128    84.858
  2147   1602.856    86.189
  2148   1603.586    86.780
  2149   1604.315    86.686
  2150   1605.046    86.497
  2151   1605.777    86.973
  2152   1606.509    86.336
  2153   1607.241    84.155
  2154   1607.974    86.573
  2155   1608.708    86.906
  2156   1609.442    87.017
  2157   1610.177    87.202
  2158   1610.913    87.219
  2159   1611.649    87.465
  2160   1612.386    87.294
  2161   1613.124    87.328
  2162   1613.862    87.095
  2163   2181.494   161.142
  2164   2182.400   161.372
  2165   2183.306   157.803
  2166   2184.213   163.956
  2167   2185.121   161.471
  2168   2186.030   165.234
  2169   2186.939   162.864
  2170   2187.850   161.984
  2171   2188.761   164.263
  2172   2189.672   160.850
  2173   2190.585   164.736
  2174   2191.498   161.649
  2175   2192.412   167.157
  2176   2193.326   161.704
  2177   2194.242   162.584
  2178   2195.158   169.287
  2179   2196.075   166.090
  2180   2196.992   160.327
  2181   2197.911   164.099
  2182   2198.830   166.866
  2183   2199.750   160.055
  2184   2200.671   166.600
  2185   2201.592   163.012
  2186   2202.514   167.912
  2187   2203.437   162.432
  2188   2204.361   167.199
  2189   2205.285   166.876
  2190   2206.211   160.979
  2191   2207.137   167.589
  2192   2208.063   167.721
  2193   2208.991   161.737
  2194   2209.919   160.759
  2195   2210.848   170.428
  2196   2211.778   166.996
  2197   2212.709   168.111
  2198   2213.640   170.405
  2199   2214.572   171.011
  2200   2215.505   165.380
  2201   2216.439   170.168
  2202   2217.373   170.524
  2203   2218.308   173.358
  2204   2219.244   159.370
  2205   2220.181   171.591
  2206   2221.118   174.344
  2207   2222.057   165.561
  2208   2222.996   172.281
  2209   2223.936   170.397
  2210   2224.876   169.244
  2211   2225.818   170.786
  2212   2226.760   172.800
  2213   2227.703   164.005
  2214   2228.647   173.799
  2215   2229.591   165.738
  2216   2230.536   169.800
  2217   2231.483   168.526
  2218   2232.429   174.690
  2219   2233.377   166.493
  2220   2234.326   170.431
  2221   2235.275   172.282
  2222   2236.225   167.781
  2223   2237.176   172.906
  2224   2238.127   171.571
  2225   2239.080   162.598
  2226   2240.033   174.252
  2227   2240.987   174.595
  2228   2241.942   174.805
  2229   2242.897   174.963
  2230   2243.853   177.609
  2231   2244.811   175.158
  2232   2245.769   174.524
  2233   2246.727   177.464
  2234   2247.687   170.575
  2235   2248.647   178.061
  2236   2249.608   171.529
  2237   2250.570   178.796
  2238   2251.533   174.580
  2239   2252.497   175.200
  2240   2253.461   179.459
  2241   2254.426   177.927
  2242   2255.392   178.000
  2243   2256.359   176.493
  2244   2257.326   171.801
  2245   2258.295   178.429
  2246   2259.264   176.446
  2247   2260.234   178.386
  2248   2261.205   176.448
  2249   2262.176   174.934
  2250   2263.149   176.104
  2251   2264.122   178.280
  2252   2265.096   175.621
  2253   2266.071   179.358
  2254   2267.047   173.419
  2255   2268.023   176.279
  2256   2269.000   167.073
  2257   2269.979   179.165
  2258   2270.958   178.411
  2259   2271.937   181.736
  2260   2272.918   179.971
  2261   2273.899   183.058
  2262   2274.882   182.485
  2263   2275.865   177.790
  2264   2276.848   184.906
  2265   2277.833   178.935
  2266   2278.819   181.733
  2267   2279.805   180.257
  2268   2280.792   185.863
  2269   2281.780   180.720
  2270   2282.769   182.417
  2271   2283.759   177.877
  2272   2284.749   184.203
  2273   2285.741   180.730
  2274   2286.733   185.927
  2275   2287.726   181.368
  2276   2288.720   185.964
  2277   2289.714   180.040
  2278   2290.710   184.489
  2279   2291.706   177.746
  2280   2292.703   184.899
  2281   2293.701   183.834
  2282   2294.700   183.864
  2283   2295.700   183.822
  2284   2296.701   178.592
  2285   2297.702   180.956
  2286   2298.704   178.769
  2287   2299.707   185.114
  2288   2300.711   188.358
  2289   2301.716   184.306
  2290   2302.722   188.849
  2291   2303.728   188.833
  2292   2304.735   185.397
  2293   2305.744   188.569
  2294   2306.753   189.898
  2295   2307.763   186.913
  2296   2308.773   185.038
  2297   2309.789   188.477
  2298   2310.702   190.354
  2299   2311.616   187.103
  2300   2312.530   186.998
  2301   2313.445   189.761
  2302   2314.361   190.085
  2303   2315.277   189.453
  2304   2316.194   187.802
  2305   2317.112   187.609
  2306   2318.031   187.830
  2307   2318.950   188.015
  2308   2319.871   187.721
  2309   2320.792   188.414
  2310   2321.713   187.963
  2311   2322.636   189.443
  2312   2323.559   189.510
  2313   2324.483   188.366
  2314   2325.408   187.777
  2315   2326.333   187.669
  2316   2327.259   185.862
  2317   2328.186   179.575
  2318   2329.114   193.293
  2319   2330.043   193.498
  2320   2330.972   193.519
  2321   2331.902   193.405
  2322   2332.833   193.629
  2323   2333.765   193.943
  2324   2334.697   194.178
  2325   2335.630   194.288
  2326   2336.564   194.638
  2327   2337.499   194.616
  2328   2338.434   194.998
  2329   2339.370   194.903
  2330   2340.307   195.132
  2331   2341.245   195.301
  2332   2342.183   195.439
  2333   2343.123   195.565
  2334   2344.063   195.182
  2335   2345.003   196.061
  2336   2345.945   196.081
  2337   2346.887   195.848
  2338   2347.831   196.486
  2339   2348.774   196.608
  2340   2349.719   196.765
  2341   2350.665   196.751
  2342   2351.611   196.576
  2343   2352.558   197.057
  2344   2353.506   197.316
  2345   2354.454   197.201
  2346   2355.404   197.532
  2347   2356.354   197.731
  2348   2357.305   197.753
  2349   2358.257   197.524
  2350   2359.209   198.116
  2351   2360.162   197.941
  2352   2361.116   198.261
  2353   2362.071   198.003
  2354   2363.027   198.689
  2355   2363.983   198.783
  2356   2364.941   199.150
  2357   2365.899   199.357
  2358   2366.858   199.481
  2359   2367.817   199.677
  2360   2368.778   200.085
  2361   2369.739   200.179
  2362   2370.701   200.320
  2363   2371.664   200.690
  2364   2372.627   200.945
  2365   2373.592   201.064
  2366   2374.557   200.915
  2367   2375.523   199.418
  2368   2376.490   197.666
  2369   2377.457   193.534
  2370   2378.426   200.105
  2371   2379.395   201.141
  2372   2380.365   193.037
  2373   2381.336   201.669
  2374   2382.307   202.275
  2375   2383.280   202.553
  2376   2384.253   202.889
  2377   2385.227   198.929
  2378   2386.202   203.362
  2379   2387.177   203.765
  2380   2388.154   203.882
  2381   2389.131   203.860
  2382   2390.109   201.068
  2383   2391.088   204.255
  2384   2392.068   203.263
  2385   2393.048   204.734
  2386   2394.030   204.585
  2387   2395.012   205.388
  2388   2395.995   205.522
  2389   2396.979   205.478
  2390   2397.963   205.846
  2391   2398.949   205.761
  2392   2399.935   206.120
  2393   2400.922   206.634
  2394   2401.910   206.802
  2395   2402.899   207.043
  2396   2403.888   207.259
  2397   2404.879   207.578
  2398   2405.870   207.882
  2399   2406.862   207.957
  2400   2407.855   208.120
  2401   2408.849   208.004
  2402   2409.843   208.305
  2403   2410.839   207.608
  2404   2411.835   209.091
  2405   2412.832   208.877
  2406   2413.830   208.909
  2407   2414.828   209.454
  2408   2415.828   209.790
  2409   2416.828   207.931
  2410   2417.830   210.546
  2411   2418.832   207.508
  2412   2419.835   210.856
  2413   2420.838   211.207
  2414   2421.843   211.446
  2415   2422.848   211.593
  2416   2423.831   211.681
  2417   2424.804   211.164
  2418   2425.777   212.170
  2419   2426.750   212.377
  2420   2427.722   212.593
  2421   2428.695   212.844
  2422   2429.668   213.013
  2423   2430.641   213.350
  2424   2431.613   213.240
  2425   2432.586   207.670
  2426   2433.559   213.595
  2427   2434.531   213.851
  2428   2435.504   214.350
  2429   2436.477   214.778
  2430   2437.450   214.431
  2431   2438.422   214.284
  2432   2439.395   215.069
  2433   2440.368   215.121
  2434   2441.341   215.412
  2435   2442.313   215.549
  2436   2443.286   215.264
  2437   2444.259   215.611
  2438   2445.232   215.575
  2439   2446.194   212.781
  2440   2447.219   215.902
  2441   2448.244   216.281
  2442   2449.270   214.632
  2443   2450.297   216.272
  2444   2451.325   216.295
  2445   2452.354   216.743
  2446   2453.383   217.020
  2447   2454.414   217.014
  2448   2455.445   217.477
  2449   2456.477   216.763
  2450   2457.510   216.264
  2451   2458.544   217.371
  2452   2459.578   217.334
  2453   2460.614   217.483
  2454   2461.650   218.065
  2455   2462.687   217.220
  2456   2463.725   213.111
  2457   2464.764   218.399
  2458   2465.804   217.540
  2459   2466.844   212.002
  2460   2467.886   196.748
  2461   2468.928   214.653
  2462   2469.971   218.217
  2463   2471.015   219.075
  2464   2472.060   218.726
  2465   2473.106   218.099
  2466   2474.153   220.120
  2467   2475.200   220.172
  2468   2476.249   217.145
  2469   2477.298   220.521
  2470   2478.348   219.633
  2471   2479.399   218.470
  2472   2480.451   221.046
  2473   2481.503   221.147
  2474   2482.557   221.303
  2475   2483.611   219.686
  2476   2484.667   221.387
  2477   2485.723   220.809
  2478   2486.780   220.743
  2479   2487.838   221.168
  2480   2488.897   220.827
  2481   2489.956   219.357
  2482   2491.017   219.120
  2483   2492.078   222.198
  2484   2493.141   221.024
  2485   2494.204   222.245
  2486   2495.268   222.285
  2487   2496.333   221.818
  2488   2497.399   222.270
  2489   2498.465   222.603
  2490   2499.533   218.902
  2491   2500.601   217.632
  2492   2501.671   222.300
  2493   2502.741   219.042
  2494   2503.812   223.648
  2495   2504.884   222.519
  2496   2505.957   220.719
  2497   2507.031   219.051
  2498   2508.106   218.848
  2499   2509.182   218.495
  2500   2510.258   222.982
  2501   2511.335   222.360
  2502   2512.414   215.920
  2503   2513.493   224.603
  2504   2514.573   225.215
  2505   2515.654   219.905
  2506   2516.736   224.860
  2507   2517.819   225.491
  2508   2518.903   222.018
  2509   2519.987   223.657
  2510   2521.073   225.415
  2511   2522.159   225.794
  2512   2523.247   226.238
  2513   2524.335   226.111
  2514   2525.424   225.495
  2515   2526.514   226.481
  2516   2527.605   226.664
  2517   2528.697   226.682
  2518   2529.790   226.651
  2519   2530.883   224.356
  2520   2531.978   226.403
  2521   2533.074   227.317
  2522   2534.170   226.883
  2523   2535.267   226.243
  2524   2536.366   227.189
  2525   2537.465   227.494
  2526   2538.565   227.760
  2527   2539.666   227.268
  2528   2540.768   227.521
  2529   2541.871   225.800
  2530   2542.975   227.627
  2531   2544.080   227.447
  2532   2545.185   228.017
  2533   2546.292   228.304
  2534   2547.399   227.918
  2535   2548.508   227.482
  2536   2549.617   228.867
  2537   2550.728   228.723
  2538   2551.839   228.995
  2539   2552.951   228.977
  2540   2554.064   229.029
  2541   2555.178   228.655
  2542   2556.293   222.709
  2543   2557.409   226.664
  2544   2558.072   223.522
  2545   2559.090   229.502
  2546   2560.109   225.353
  2547   2561.128   229.895
  2548   2562.149   227.668
  2549   2563.170   228.647
  2550   2564.192   229.564
  2551   2565.215   226.886
  2552   2566.238   228.169
  2553   2567.263   229.268
  2554   2568.288   228.905
  2555   2569.315   228.844
  2556   2570.342   227.105
  2557   2571.370   226.684
  2558   2572.398   228.064
  2559   2573.428   230.354
  2560   2574.458   230.036
  2561   2575.490   230.063
  2562   2576.522   228.649
  2563   2577.555   230.662
  2564   2578.589   229.235
  2565   2579.624   231.742
  2566   2580.659   228.860
  2567   2581.696   229.361
  2568   2582.733   228.768
  2569   2583.771   229.883
  2570   2584.810   229.613
  2571   2585.850   216.881
  2572   2586.891   228.459
  2573   2587.932   231.164
  2574   2588.975   231.504
  2575   2590.018   232.306
  2576   2591.062   231.962
  2577   2592.107   231.720
  2578   2593.153   232.613
  2579   2594.200   232.118
  2580   2595.247   231.824
  2581   2596.296   232.725
  2582   2597.345   232.285
  2583   2598.395   232.936
  2584   2599.446   233.017
  2585   2600.498   233.093
  2586   2601.551   232.905
  2587   2602.605   233.115
  2588   2603.659   233.149
  2589   2604.715   232.906
  2590   2605.771   233.136
  2591   2606.828   232.943
  2592   2607.886   232.739
  2593   2608.945   233.678
  2594   2610.005   233.805
  2595   2611.066   233.897
  2596   2612.127   233.909
  2597   2613.190   234.133
  2598   2614.253   234.259
  2599   2615.317   234.203
  2600   2616.383   234.289
  2601   2617.449   234.404
  2602   2618.515   234.556
  2603   2619.583   234.626
  2604   2620.652   234.318
  2605   2621.721   234.862
  2606   2622.792   234.721
  2607   2623.863   234.913
  2608   2624.935   235.119
  2609   2626.009   235.317
  2610   2627.083   235.382
  2611   2628.157   235.395
  2612   2629.233   235.510
  2613   2630.310   235.439
  2614   2631.388   235.406
  2615   2632.466   235.865
  2616   2633.545   236.096
  2617   2634.626   236.083
  2618   2635.707   236.301
  2619   2636.789   236.588
  2620   2637.872   236.711
  2621   2638.956   236.840
  2622   2640.041   237.106
  2623   2641.126   237.109
  2624   2642.213   237.420
  2625   2643.301   237.038
  2626   2644.389   237.497
  2627   2645.478   237.943
  2628   2646.569   238.098
  2629   2647.660   238.101
  2630   2648.752   238.576
  2631   2649.845   238.647
  2632   2650.939   238.996
  2633   2652.034   238.851
  2634   2653.129   238.809
  2635   2654.226   239.288
  2636   2655.324   239.639
  2637   2656.422   239.924
  2638   2657.522   239.932
  2639   2658.622   239.461
  2640   2659.723   240.409
  2641   2660.825   240.765
  2642   2661.929   240.897
  2643   2663.033   241.100
  2644   2664.138   240.759
  2645   2665.244   241.603
